#VisAO z-prime
#Effective wavelength =      0.90969793 microns
#Effective width =       0.12102354 microns
#note: no atmosphere included
#     lambda     trans     RSR       RSR+atm
     0.754000      0.00000      0.00000      0.00000
     0.754500  2.30506e-06  2.06022e-06  2.06022e-06
     0.755000  2.41550e-06  2.16036e-06  2.16036e-06
     0.755500  3.33574e-06  2.98536e-06  2.98536e-06
     0.756000  2.77270e-06  2.48311e-06  2.48311e-06
     0.756500  1.85366e-06  1.66116e-06  1.66116e-06
     0.757000  1.53153e-06  1.37339e-06  1.37339e-06
     0.757500  1.70091e-06  1.52629e-06  1.52629e-06
     0.758000  1.82207e-06  1.63608e-06  1.63608e-06
     0.758500  2.27509e-06  2.04421e-06  2.04421e-06
     0.759000  5.18478e-06  4.66169e-06  4.66169e-06
     0.759500  2.96817e-06  2.67047e-06  2.67047e-06
     0.760000  3.22554e-06  2.90394e-06  2.90394e-06
     0.760500  3.69140e-06  3.32554e-06  3.32554e-06
     0.761000  3.09639e-06  2.79133e-06  2.79133e-06
     0.761500  1.92792e-06  1.73912e-06  1.73912e-06
     0.762000  2.92006e-06  2.63583e-06  2.63583e-06
     0.762500  4.67773e-06  4.22519e-06  4.22519e-06
     0.763000  4.51933e-06  4.08479e-06  4.08479e-06
     0.763500  4.81574e-06  4.35555e-06  4.35555e-06
     0.764000  3.38647e-06  3.06487e-06  3.06487e-06
     0.764500  3.21235e-06  2.90918e-06  2.90918e-06
     0.765000  4.10284e-06  3.71807e-06  3.71807e-06
     0.765500  5.24638e-06  4.75747e-06  4.75747e-06
     0.766000  3.47455e-06  3.15282e-06  3.15282e-06
     0.766500  4.41611e-06  4.00981e-06  4.00981e-06
     0.767000  5.58631e-06  5.07565e-06  5.07565e-06
     0.767500  4.18421e-06  3.80420e-06  3.80420e-06
     0.768000  3.96102e-06  3.60362e-06  3.60362e-06
     0.768500  5.10152e-06  4.64424e-06  4.64424e-06
     0.769000  5.92960e-06  5.40160e-06  5.40160e-06
     0.769500  6.71264e-06  6.11890e-06  6.11890e-06
     0.770000  6.47630e-06  5.90730e-06  5.90730e-06
     0.770500  6.28056e-06  5.73248e-06  5.73248e-06
     0.771000  7.23173e-06  6.60493e-06  6.60493e-06
     0.771500  8.01741e-06  7.32726e-06  7.32726e-06
     0.772000  8.53336e-06  7.80385e-06  7.80385e-06
     0.772500  1.00577e-05  9.20381e-06  9.20381e-06
     0.773000  8.91208e-06  8.16074e-06  8.16074e-06
     0.773500  1.01468e-05  9.29740e-06  9.29740e-06
     0.774000  1.10697e-05  1.01496e-05  1.01496e-05
     0.774500  1.27973e-05  1.17412e-05  1.17412e-05
     0.775000  1.17740e-05  1.08093e-05  1.08093e-05
     0.775500  1.16745e-05  1.07248e-05  1.07248e-05
     0.776000  1.29981e-05  1.19485e-05  1.19485e-05
     0.776500  1.53472e-05  1.41170e-05  1.41170e-05
     0.777000  1.45148e-05  1.33599e-05  1.33599e-05
     0.777500  1.58300e-05  1.45799e-05  1.45799e-05
     0.778000  1.51350e-05  1.39487e-05  1.39487e-05
     0.778500  1.81515e-05  1.67395e-05  1.67395e-05
     0.779000  1.97868e-05  1.82593e-05  1.82593e-05
     0.779500  2.06694e-05  1.90861e-05  1.90861e-05
     0.780000  2.07858e-05  1.92058e-05  1.92058e-05
     0.780500  2.05219e-05  1.89742e-05  1.89742e-05
     0.781000  2.33995e-05  2.16486e-05  2.16486e-05
     0.781500  2.49536e-05  2.31012e-05  2.31012e-05
     0.782000  2.73564e-05  2.53418e-05  2.53418e-05
     0.782500  2.98413e-05  2.76614e-05  2.76614e-05
     0.783000  2.87408e-05  2.66583e-05  2.66583e-05
     0.783500  3.54783e-05  3.29286e-05  3.29286e-05
     0.784000  3.36685e-05  3.12688e-05  3.12688e-05
     0.784500  3.73337e-05  3.46948e-05  3.46948e-05
     0.785000  3.96063e-05  3.68303e-05  3.68303e-05
     0.785500  4.31292e-05  4.01318e-05  4.01318e-05
     0.786000  4.54722e-05  4.23389e-05  4.23389e-05
     0.786500  4.95471e-05  4.61623e-05  4.61623e-05
     0.787000  5.29678e-05  4.93808e-05  4.93808e-05
     0.787500  5.89139e-05  5.49591e-05  5.49591e-05
     0.788000  6.13396e-05  5.72583e-05  5.72583e-05
     0.788500  6.38941e-05  5.96807e-05  5.96807e-05
     0.789000  6.99095e-05  6.53408e-05  6.53408e-05
     0.789500  7.60497e-05  7.11248e-05  7.11248e-05
     0.790000  8.05062e-05  7.53404e-05  7.53404e-05
     0.790500  8.86502e-05  8.30143e-05  8.30143e-05
     0.791000  9.14325e-05  8.56739e-05  8.56739e-05
     0.791500  0.000100046  9.38040e-05  9.38040e-05
     0.792000  0.000109659  0.000102882  0.000102882
     0.792500  0.000116623  0.000109485  0.000109485
     0.793000  0.000125941  0.000118307  0.000118307
     0.793500  0.000134719  0.000126633  0.000126633
     0.794000  0.000146451  0.000137748  0.000137748
     0.794500  0.000158893  0.000149545  0.000149545
     0.795000  0.000170614  0.000160676  0.000160676
     0.795500  0.000184491  0.000173855  0.000173855
     0.796000  0.000199192  0.000187826  0.000187826
     0.796500  0.000215195  0.000203044  0.000203044
     0.797000  0.000234206  0.000221120  0.000221120
     0.797500  0.000252180  0.000238239  0.000238239
     0.798000  0.000274832  0.000259802  0.000259802
     0.798500  0.000297614  0.000281514  0.000281514
     0.799000  0.000324448  0.000307088  0.000307088
     0.799500  0.000350088  0.000331564  0.000331564
     0.800000  0.000380283  0.000360386  0.000360386
     0.800500  0.000415677  0.000394175  0.000394175
     0.801000  0.000450808  0.000427755  0.000427755
     0.801500  0.000493944  0.000468978  0.000468978
     0.802000  0.000537353  0.000510511  0.000510511
     0.802500  0.000585485  0.000556586  0.000556586
     0.803000  0.000639472  0.000608286  0.000608286
     0.803500  0.000696567  0.000663010  0.000663010
     0.804000  0.000765775  0.000729338  0.000729338
     0.804500  0.000834658  0.000795437  0.000795437
     0.805000  0.000911285  0.000869003  0.000869003
     0.805500  0.000997282  0.000951600  0.000951600
     0.806000   0.00109315   0.00104373   0.00104373
     0.806500   0.00119887   0.00114537   0.00114537
     0.807000   0.00131297   0.00125516   0.00125516
     0.807500   0.00144324   0.00138055   0.00138055
     0.808000   0.00158833   0.00152028   0.00152028
     0.808500   0.00174568   0.00167192   0.00167192
     0.809000   0.00193073   0.00185029   0.00185029
     0.809500   0.00212650   0.00203917   0.00203917
     0.810000   0.00233921   0.00224453   0.00224453
     0.810500   0.00258771   0.00248450   0.00248450
     0.811000   0.00285346   0.00274135   0.00274135
     0.811500   0.00315214   0.00303015   0.00303015
     0.812000   0.00348278   0.00335007   0.00335007
     0.812500   0.00386724   0.00372216   0.00372216
     0.813000   0.00429121   0.00413278   0.00413278
     0.813500   0.00475595   0.00458317   0.00458317
     0.814000   0.00528558   0.00509669   0.00509669
     0.814500   0.00587041   0.00566410   0.00566410
     0.815000   0.00653267   0.00630695   0.00630695
     0.815500   0.00729274   0.00704508   0.00704508
     0.816000   0.00814360   0.00787187   0.00787187
     0.816500   0.00908462   0.00878687   0.00878687
     0.817000    0.0101643   0.00983720   0.00983720
     0.817500    0.0114125    0.0110520    0.0110520
     0.818000    0.0127788    0.0123827    0.0123827
     0.818500    0.0143414    0.0139053    0.0139053
     0.819000    0.0161219    0.0156413    0.0156413
     0.819500    0.0181060    0.0175769    0.0175769
     0.820000    0.0203808    0.0197973    0.0197973
     0.820500    0.0229723    0.0223282    0.0223282
     0.821000    0.0258905    0.0251799    0.0251799
     0.821500    0.0291756    0.0283922    0.0283922
     0.822000    0.0330069    0.0321402    0.0321402
     0.822500    0.0373439    0.0363854    0.0363854
     0.823000    0.0422856    0.0412253    0.0412253
     0.823500    0.0478828    0.0467105    0.0467105
     0.824000    0.0545151    0.0532127    0.0532127
     0.824500    0.0618795    0.0604378    0.0604378
     0.825000    0.0702354    0.0686406    0.0686406
     0.825500    0.0798832    0.0781166    0.0781166
     0.826000    0.0907471    0.0887941    0.0887941
     0.826500     0.103109     0.100951     0.100951
     0.827000     0.117066     0.114686     0.114686
     0.827500     0.132641     0.130022     0.130022
     0.828000     0.150157     0.147281     0.147281
     0.828500     0.170582     0.167416     0.167416
     0.829000     0.193399     0.189924     0.189924
     0.829500     0.218227     0.214435     0.214435
     0.830000     0.246062     0.241932     0.241932
     0.830500     0.276676     0.272197     0.272197
     0.831000     0.310128     0.305290     0.305290
     0.831500     0.347069     0.341861     0.341861
     0.832000     0.386084     0.380519     0.380519
     0.832500     0.427274     0.421369     0.421369
     0.833000     0.470018     0.463800     0.463800
     0.833500     0.514064     0.507568     0.507568
     0.834000     0.558882     0.552151     0.552151
     0.834500     0.603113     0.596206     0.596206
     0.835000     0.647763     0.640728     0.640728
     0.835500     0.691250     0.684152     0.684152
     0.836000     0.731766     0.724686     0.724686
     0.836500     0.770288     0.763291     0.763291
     0.837000     0.805670     0.798829     0.798829
     0.837500     0.837617     0.831001     0.831001
     0.838000     0.866089     0.859761     0.859761
     0.838500     0.893345     0.887347     0.887347
     0.839000     0.917770     0.912152     0.912152
     0.839500     0.935972     0.930797     0.930797
     0.840000     0.951556     0.946858     0.946858
     0.840500     0.963916     0.959728     0.959728
     0.841000     0.973214     0.969563     0.969563
     0.841500     0.980698     0.977599     0.977599
     0.842000     0.986407     0.983874     0.983874
     0.842500     0.990778     0.988821     0.988821
     0.843000     0.993060     0.991687     0.991687
     0.843500     0.997451     0.996662     0.996662
     0.844000      1.00000     0.999801     0.999801
     0.844500     0.999606      1.00000      1.00000
     0.845000     0.998487     0.999471     0.999471
     0.845500     0.997524     0.999099     0.999099
     0.846000     0.995421     0.997581     0.997581
     0.846500     0.993596     0.996341     0.996341
     0.847000     0.991191     0.994517     0.994517
     0.847500     0.989040     0.992944     0.992944
     0.848000     0.986473     0.990952     0.990952
     0.848500     0.983858     0.988907     0.988907
     0.849000     0.981214     0.986830     0.986830
     0.849500     0.978254     0.984433     0.984433
     0.850000     0.977885     0.984641     0.984641
     0.850500     0.976724     0.984051     0.984051
     0.851000     0.973793     0.981674     0.981674
     0.851500     0.971041     0.979476     0.979476
     0.852000     0.968269     0.977253     0.977253
     0.852500     0.965459     0.974989     0.974989
     0.853000     0.962247     0.972315     0.972315
     0.853500     0.959800     0.970411     0.970411
     0.854000     0.958813     0.969980     0.969980
     0.854500     0.958190     0.969917     0.969917
     0.855000     0.955308     0.967567     0.967567
     0.855500     0.952452     0.965238     0.965238
     0.856000     0.949691     0.963002     0.963002
     0.856500     0.946640     0.960470     0.960470
     0.857000     0.944364     0.958719     0.958719
     0.857500     0.944105     0.959016     0.959016
     0.858000     0.942349     0.957790     0.957790
     0.858500     0.939785     0.955740     0.955740
     0.859000     0.936903     0.953365     0.953365
     0.859500     0.933258     0.950208     0.950208
     0.860000     0.930678     0.948133     0.948133
     0.860500     0.928082     0.946038     0.946038
     0.861000     0.926142     0.944609     0.944609
     0.861500     0.925523     0.944526     0.944526
     0.862000     0.924901     0.944439     0.944439
     0.862500     0.921956     0.941978     0.941978
     0.863000     0.919422     0.939933     0.939933
     0.863500     0.917259     0.938265     0.938265
     0.864000     0.914764     0.936255     0.936255
     0.864500     0.913690     0.935697     0.935697
     0.865000     0.913885     0.936437     0.936437
     0.865500     0.912128     0.935177     0.935177
     0.866000     0.909407     0.932927     0.932927
     0.866500     0.907057     0.931053     0.931053
     0.867000     0.903774     0.928218     0.928218
     0.867500     0.901948     0.926877     0.926877
     0.868000     0.902014     0.927479     0.927479
     0.868500     0.901442     0.927425     0.927425
     0.869000     0.898698     0.925134     0.925134
     0.869500     0.896140     0.923032     0.923032
     0.870000     0.894346     0.921714     0.921714
     0.870500     0.890020     0.917783     0.917783
     0.871000     0.887538     0.915749     0.915749
     0.871500     0.886449     0.915150     0.915150
     0.872000     0.883389     0.912515     0.912515
     0.872500     0.879326     0.908838     0.908838
     0.873000     0.875989     0.905908     0.905908
     0.873500     0.872598     0.902918     0.902918
     0.874000     0.869520     0.900249     0.900249
     0.874500     0.867060     0.898215     0.898215
     0.875000     0.866404     0.898048     0.898048
     0.875500     0.863467     0.895516     0.895516
     0.876000     0.859201     0.891600     0.891600
     0.876500     0.855974     0.888758     0.888758
     0.877000     0.851627     0.884750     0.884750
     0.877500     0.848994     0.882517     0.882517
     0.878000     0.847839     0.881819     0.881819
     0.878500     0.844626     0.878977     0.878977
     0.879000     0.840918     0.875616     0.875616
     0.879500     0.837571     0.872627     0.872627
     0.880000     0.833535     0.868915     0.868915
     0.880500     0.830355     0.866093     0.866093
     0.881000     0.827384     0.863484     0.863484
     0.881500     0.824655     0.861124     0.861124
     0.882000     0.824209     0.861147     0.861147
     0.882500     0.821479     0.858782     0.858782
     0.883000     0.818071     0.855703     0.855703
     0.883500     0.814976     0.852948     0.852948
     0.884000     0.811947     0.850259     0.850259
     0.884500     0.808728     0.847368     0.847368
     0.885000     0.805715     0.844687     0.844687
     0.885500     0.803389     0.842725     0.842725
     0.886000     0.802824     0.842607     0.842607
     0.886500     0.800256     0.840386     0.840386
     0.887000     0.797663     0.838135     0.838135
     0.887500     0.794660     0.835451     0.835451
     0.888000     0.790424     0.831466     0.831466
     0.888500     0.787967     0.829348     0.829348
     0.889000     0.785191     0.826891     0.826891
     0.889500     0.785856     0.828057     0.828057
     0.890000     0.781768     0.824212     0.824212
     0.890500     0.778878     0.821626     0.821626
     0.891000     0.776057     0.819111     0.819111
     0.891500     0.773956     0.817352     0.817352
     0.892000     0.772909     0.816703     0.816703
     0.892500     0.769707     0.813776     0.813776
     0.893000     0.767542     0.811941     0.811941
     0.893500     0.765125     0.809838     0.809838
     0.894000     0.761052     0.805978     0.805978
     0.894500     0.757340     0.802495     0.802495
     0.895000     0.754553     0.799989     0.799989
     0.895500     0.752254     0.797997     0.797997
     0.896000     0.750413     0.796489     0.796489
     0.896500     0.749145     0.795587     0.795587
     0.897000     0.747334     0.794106     0.794106
     0.897500     0.742922     0.789858     0.789858
     0.898000     0.739743     0.786916     0.786916
     0.898500     0.736354     0.783747     0.783747
     0.899000     0.735304     0.783065     0.783065
     0.899500     0.732880     0.780918     0.780918
     0.900000     0.730380     0.778686     0.778686
     0.900500     0.727256     0.775787     0.775787
     0.901000     0.724066     0.772813     0.772813
     0.901500     0.720962     0.769927     0.769927
     0.902000     0.718207     0.767410     0.767410
     0.902500     0.717154     0.766710     0.766710
     0.903000     0.714723     0.764534     0.764534
     0.903500     0.711593     0.761608     0.761608
     0.904000     0.708332     0.758536     0.758536
     0.904500     0.705140     0.755536     0.755536
     0.905000     0.701886     0.752465     0.752465
     0.905500     0.698662     0.749422     0.749422
     0.906000     0.695455     0.746395     0.746395
     0.906500     0.694058     0.745307     0.745307
     0.907000     0.691810     0.743302     0.743302
     0.907500     0.688554     0.740212     0.740212
     0.908000     0.685159     0.736968     0.736968
     0.908500     0.681866     0.733830     0.733830
     0.909000     0.678496     0.730605     0.730605
     0.909500     0.675124     0.727373     0.727373
     0.910000     0.671816     0.724208     0.724208
     0.910500     0.669695     0.722318     0.722318
     0.911000     0.667259     0.720085     0.720085
     0.911500     0.663395     0.716308     0.716308
     0.912000     0.659540     0.712537     0.712537
     0.912500     0.655685     0.708760     0.708760
     0.913000     0.651805     0.704952     0.704952
     0.913500     0.648524     0.701788     0.701788
     0.914000     0.646360     0.699829     0.699829
     0.914500     0.642970     0.696540     0.696540
     0.915000     0.639009     0.692626     0.692626
     0.915500     0.635102     0.688768     0.688768
     0.916000     0.631212     0.684923     0.684923
     0.916500     0.627233     0.680977     0.680977
     0.917000     0.624686     0.678582     0.678582
     0.917500     0.622203     0.676253     0.676253
     0.918000     0.618330     0.672410     0.672410
     0.918500     0.614472     0.668579     0.668579
     0.919000     0.610556     0.664679     0.664679
     0.919500     0.606668     0.660806     0.660806
     0.920000     0.602796     0.656946     0.656946
     0.920500     0.599918     0.654164     0.654164
     0.921000     0.598021     0.652450     0.652450
     0.921500     0.596862     0.651539     0.651539
     0.922000     0.594696     0.649528     0.649528
     0.922500     0.592669     0.647664     0.647664
     0.923000     0.590558     0.645707     0.645707
     0.923500     0.587900     0.643149     0.643149
     0.924000     0.585172     0.640512     0.640512
     0.924500     0.583982     0.639555     0.639555
     0.925000     0.582058     0.637792     0.637792
     0.925500     0.579179     0.634980     0.634980
     0.926000     0.576346     0.632216     0.632216
     0.926500     0.573519     0.629455     0.629455
     0.927000     0.570696     0.626694     0.626694
     0.927500     0.567851     0.623906     0.623906
     0.928000     0.565080     0.621197     0.621197
     0.928500     0.562290     0.618463     0.618463
     0.929000     0.559502     0.615728     0.615728
     0.929500     0.556715     0.612990     0.612990
     0.930000     0.553905     0.610224     0.610224
     0.930500     0.550678     0.606995     0.606995
     0.931000     0.547490     0.603806     0.603806
     0.931500     0.544252     0.600557     0.600557
     0.932000     0.541013     0.597303     0.597303
     0.932500     0.538722     0.595093     0.595093
     0.933000     0.536785     0.593272     0.593272
     0.933500     0.533550     0.590012     0.590012
     0.934000     0.530302     0.586734     0.586734
     0.934500     0.527062     0.583462     0.583462
     0.935000     0.523829     0.580192     0.580192
     0.935500     0.520670     0.577002     0.577002
     0.936000     0.517396     0.573680     0.573680
     0.936500     0.514167     0.570405     0.570405
     0.937000     0.510945     0.567133     0.567133
     0.937500     0.508885     0.565148     0.565148
     0.938000     0.506595     0.562905     0.562905
     0.938500     0.503345     0.559592     0.559592
     0.939000     0.500133     0.556318     0.556318
     0.939500     0.496881     0.552994     0.552994
     0.940000     0.493604     0.549639     0.549639
